      freq (eV)        Lorentz     Gen_Plasma      Bren_Borm    Marachevsky          Drude
          0.050     -11704.686     -32732.289     -12562.235     -10950.383     -26555.788
          0.052     -11290.133     -30355.660     -12091.706     -10574.904     -24970.310
          0.054     -10889.858     -28228.728     -11639.303     -10211.559     -23513.565
          0.055     -10501.903     -26308.211     -11202.616      -9858.648     -22166.303
          0.057     -10130.231     -24585.742     -10785.904      -9519.852     -20931.331
          0.059      -9772.613     -23027.014     -10386.465      -9193.225     -19791.351
          0.061      -9428.811     -21611.914     -10003.852      -8878.619     -18737.444
          0.063      -9096.834     -20316.881      -9635.693      -8574.277     -17756.718
          0.065      -8779.797     -19140.705      -9285.282      -8283.119     -16852.226
          0.067      -8474.000     -18058.354      -8948.384      -8001.809     -16008.039
          0.069      -8182.227     -17070.203      -8627.929      -7732.964     -15227.206
          0.071      -7902.435     -16160.964      -8321.540      -7474.758     -14500.034
          0.073      -7634.195     -15322.453      -8028.634      -7226.843     -13821.912
          0.075      -7375.758     -14543.618      -7747.198      -6987.646     -13185.487
          0.077      -7129.379     -13826.277      -7479.592      -6759.295     -12593.634
          0.078      -6893.252     -13160.705      -7223.761      -6540.160     -12039.555
          0.080      -6665.794     -12538.911      -6977.910      -6328.802     -11517.571
          0.082      -6448.956     -11963.052      -6744.074      -6127.068     -11030.353
          0.084      -6241.120     -11425.948      -6520.437      -5933.486     -10572.600
          0.086      -6041.892     -10924.200      -6306.511      -5747.716     -10142.046
          0.088      -5849.911     -10452.392      -6100.782      -5568.511      -9734.577
          0.090      -5666.804     -10012.711      -5904.941      -5397.416      -9352.556
          0.092      -5490.295      -9598.089      -5716.506      -5232.324      -8990.260
          0.094      -5321.879      -9210.647      -5537.030      -5074.653      -8649.900
          0.096      -5160.289      -8846.182      -5365.121      -4923.237      -8328.115
          0.098      -5005.212      -8502.913      -5200.409      -4777.798      -8023.606
          0.099      -4856.347      -8179.228      -5042.542      -4638.069      -7735.182
          0.101      -4711.940      -7870.556      -4889.633      -4502.416      -7458.965
          0.103      -4575.413      -7583.425      -4745.277      -4374.068      -7200.991
          0.105      -4444.218      -7311.710      -4606.750      -4250.642      -6955.946
          0.107      -4318.110      -7054.328      -4473.771      -4131.920      -6722.995
          0.109      -4196.857      -6810.288      -4346.074      -4017.691      -6501.368
          0.111      -4074.222      -6566.822      -4217.083      -3902.084      -6279.530
          0.113      -3962.250      -6347.410      -4099.449      -3796.460      -6078.981
          0.115      -3854.487      -6138.803      -3986.366      -3694.748      -5887.751
          0.117      -3750.743      -5940.301      -3877.619      -3596.772      -5705.279
          0.119      -3650.838      -5751.263      -3773.006      -3502.370      -5531.046
          0.120      -3554.598      -5571.096      -3672.332      -3411.383      -5364.571
          0.122      -3461.861      -5399.254      -3575.417      -3323.663      -5205.405
          0.124      -3372.470      -5235.231      -3482.087      -3239.067      -5053.132
          0.126      -3281.827      -5070.511      -3387.538      -3153.244      -4899.866
          0.128      -3198.851      -4921.113      -3301.062      -3074.643      -4760.558
          0.130      -3118.792      -4778.213      -3217.698      -2998.773      -4627.040
          0.132      -3041.524      -4641.439      -3137.305      -2925.517      -4499.000
          0.134      -2966.926      -4510.446      -3059.753      -2854.765      -4376.146
          0.136      -2894.885      -4384.913      -2984.914      -2786.410      -4258.204
          0.138      -2825.291      -4264.540      -2912.671      -2720.352      -4144.918
          0.140      -2758.041      -4149.048      -2842.911      -2656.496      -4036.049
          0.142      -2689.675      -4032.466      -2772.043      -2591.558      -3925.976
          0.143      -2626.933      -3926.197      -2707.049      -2531.940      -3825.485
          0.145      -2566.248      -3824.067      -2644.227      -2474.259      -3728.769
          0.147      -2507.536      -3725.863      -2583.485      -2418.435      -3635.643
          0.149      -2450.717      -3631.387      -2524.737      -2364.395      -3545.932
          0.151      -2395.713      -3540.453      -2467.900      -2312.067      -3459.472
          0.153      -2342.452      -3452.885      -2412.894      -2261.382      -3376.111
          0.155      -2288.194      -3364.166      -2356.890      -2209.735      -3291.549
          0.157      -2238.295      -3283.005      -2305.414      -2162.224      -3214.101
          0.159      -2189.936      -3204.740      -2255.553      -2116.167      -3139.333
          0.161      -2143.057      -3129.235      -2207.242      -2071.510      -3067.125
          0.163      -2097.600      -3056.361      -2160.419      -2028.197      -2997.361
          0.165      -2053.510      -2985.997      -2115.026      -1986.177      -2929.933
          0.166      -2010.736      -2918.030      -2071.008      -1945.402      -2864.739
          0.168      -1969.227      -2852.352      -2028.311      -1905.825      -2801.682
          0.170      -1926.847      -2785.579      -1984.739      -1865.410      -2737.514
          0.172      -1887.788      -2724.287      -1944.597      -1828.153      -2678.560
          0.174      -1849.855      -2664.990      -1905.629      -1791.964      -2621.479
          0.176      -1813.006      -2607.604      -1867.791      -1756.804      -2566.191
          0.178      -1777.202      -2552.046      -1831.040      -1722.634      -2512.622
          0.180      -1742.406      -2498.241      -1795.337      -1689.421      -2460.704
          0.182      -1708.580      -2446.114      -1760.642      -1657.128      -2410.368
          0.184      -1675.691      -2395.598      -1726.920      -1625.724      -2361.552
          0.186      -1642.045      -2344.089      -1692.435      -1593.593      -2311.742
          0.188      -1610.974      -2296.675      -1660.601      -1563.917      -2265.860
          0.189      -1580.742      -2250.681      -1629.637      -1535.038      -2221.322
          0.191      -1551.320      -2206.050      -1599.512      -1506.929      -2178.078
          0.193      -1522.680      -2162.730      -1570.197      -1479.563      -2136.077
          0.195      -1494.795      -2120.669      -1541.663      -1452.916      -2095.273
          0.197      -1467.640      -2079.819      -1513.885      -1426.962      -2055.621
          0.199      -1439.816      -2038.077      -1485.432      -1400.366      -2015.079
          0.201      -1414.082      -1999.571      -1459.124      -1375.765      -1977.659
          0.203      -1389.006      -1962.143      -1433.495      -1351.790      -1941.267
          0.205      -1364.565      -1925.752      -1408.523      -1328.420      -1905.865
          0.207      -1340.739      -1890.360      -1384.185      -1305.636      -1871.418
          0.208      -1317.509      -1855.931      -1360.462      -1283.418      -1837.893
          0.210      -1294.854      -1822.431      -1337.333      -1261.749      -1805.255
          0.212      -1272.757      -1789.826      -1314.778      -1240.611      -1773.476
          0.214      -1250.079      -1756.438      -1291.637      -1218.916      -1740.917
          0.216      -1229.071      -1725.573      -1270.204      -1198.816      -1710.806
          0.218      -1208.569      -1695.512      -1249.292      -1179.198      -1681.466
          0.220      -1188.556      -1666.226      -1228.884      -1160.046      -1652.871
          0.222      -1169.017      -1637.689      -1208.964      -1141.347      -1624.996
          0.224      -1149.939      -1609.876      -1189.517      -1123.086      -1597.818
          0.226      -1131.306      -1582.763      -1170.528      -1105.251      -1571.312
          0.228      -1113.106      -1556.325      -1151.984      -1087.828      -1545.458
          0.230      -1094.402      -1529.202      -1132.928      -1069.920      -1518.923
          0.232      -1077.049      -1504.084      -1115.254      -1053.305      -1494.341
          0.233      -1060.091      -1479.577      -1097.984      -1037.066      -1470.348
          0.235      -1043.516      -1455.660      -1081.107      -1021.192      -1446.926
          0.237      -1027.312      -1432.317      -1064.611      -1005.672      -1424.057
          0.239      -1011.469      -1409.527      -1048.484       -990.497      -1401.723
          0.241       -995.977      -1387.275      -1032.716       -975.655      -1379.909
          0.243       -980.825      -1365.542      -1017.297       -961.139      -1358.599
          0.245       -965.233      -1343.210      -1001.431       -946.198      -1336.693
          0.247       -950.749      -1322.496       -986.696       -932.319      -1316.368
          0.249       -936.579      -1302.254       -972.279       -918.737      -1296.501
          0.251       -922.711      -1282.471       -958.172       -905.444      -1277.079
          0.253       -909.138      -1263.133       -944.367       -892.432      -1258.089
          0.254       -895.853      -1244.227       -930.854       -879.694      -1239.517
          0.256       -882.847      -1225.739       -917.626       -867.221      -1221.352
          0.258       -869.449      -1206.718       -904.000       -854.372      -1202.658
          0.260       -856.993      -1189.052       -891.332       -842.422      -1185.291
          0.262       -844.793      -1171.769       -878.925       -830.717      -1168.297
          0.264       -832.844      -1154.858       -866.773       -819.250      -1151.664
          0.266       -821.139      -1138.308       -854.869       -808.015      -1135.383
          0.268       -809.671      -1122.110       -843.205       -797.005      -1119.443
          0.270       -798.435      -1106.252       -831.776       -786.215      -1103.835
          0.272       -787.424      -1090.726       -820.575       -775.639      -1088.551
          0.274       -776.071      -1074.731       -809.026       -764.731      -1072.801
          0.276       -765.505      -1059.857       -798.275       -754.577      -1058.152
          0.277       -755.148      -1045.288       -787.736       -744.620      -1043.801
          0.279       -744.995      -1031.015       -777.402       -734.856      -1029.738
          0.281       -735.040      -1017.030       -767.268       -725.279      -1015.956
          0.283       -725.279      -1003.326       -757.329       -715.886      -1002.449
          0.285       -715.707       -989.896       -747.580       -706.670       -989.208
          0.287       -706.319       -976.731       -738.017       -697.629       -976.227
          0.289       -696.632       -963.153       -728.145       -688.295       -962.836
          0.291       -687.610       -950.512       -718.948       -679.597       -950.367
          0.293       -678.759       -938.117       -709.922       -671.061       -938.138
          0.295       -670.076       -925.961       -701.064       -662.682       -926.143
          0.296       -661.557       -914.038       -692.369       -654.456       -914.376
          0.298       -653.199       -902.342       -683.833       -646.380       -902.831
          0.300       -644.997       -890.867       -675.453       -638.450       -891.502
          0.302       -636.528       -879.021       -666.796       -630.258       -879.805
          0.304       -628.637       -867.983       -658.724       -622.617       -868.905
          0.306       -620.892       -857.150       -650.797       -615.113       -858.205
          0.308       -613.290       -846.517       -643.010       -607.742       -847.701
          0.310       -605.829       -836.079       -635.362       -600.500       -837.388
          0.312       -598.504       -825.831       -627.848       -593.385       -827.261
          0.314       -591.314       -815.769       -620.465       -586.394       -817.317
          0.316       -584.256       -805.888       -613.211       -579.523       -807.550
          0.318       -576.965       -795.677       -605.711       -572.419       -797.456
          0.320       -570.168       -786.155       -598.712       -565.789       -788.041
          0.321       -563.495       -776.801       -591.832       -559.271       -778.791
          0.323       -556.943       -767.611       -585.069       -552.864       -769.703
          0.325       -550.509       -758.582       -578.421       -546.564       -760.772
          0.327       -544.191       -749.709       -571.885       -540.370       -751.995
          0.329       -537.988       -740.990       -565.458       -534.279       -743.369
          0.331       -531.579       -731.974       -558.808       -527.977       -734.448
          0.333       -525.602       -723.559       -552.599       -522.091       -726.120
          0.335       -519.733       -715.286       -546.491       -516.301       -717.933
          0.337       -513.970       -707.154       -540.484       -510.606       -709.882
          0.339       -508.309       -699.157       -534.574       -505.003       -701.967
          0.341       -502.750       -691.294       -528.760       -499.490       -694.182
          0.342       -497.290       -683.562       -523.040       -494.066       -686.526
          0.344       -491.928       -675.957       -517.412       -488.728       -678.995
          0.346       -486.387       -668.087       -511.584       -483.201       -671.201
          0.348       -481.219       -660.736       -506.138       -478.036       -663.920
          0.350       -476.143       -653.504       -500.778       -472.952       -656.756
          0.352       -471.157       -646.389       -495.502       -467.947       -649.707
          0.354       -466.260       -639.388       -490.308       -463.020       -642.771
          0.356       -461.449       -632.499       -485.195       -458.169       -635.944
          0.358       -456.723       -625.719       -480.161       -453.393       -629.226
          0.360       -452.080       -619.047       -475.205       -448.691       -622.613
          0.362       -447.281       -612.137       -470.070       -443.818       -615.764
          0.363       -442.804       -605.677       -465.268       -439.261       -609.361
          0.365       -438.406       -599.319       -460.538       -434.773       -603.058
          0.367       -434.083       -593.058       -455.880       -430.352       -596.851
          0.369       -429.836       -586.894       -451.292       -425.997       -590.739
          0.371       -425.662       -580.824       -446.772       -421.707       -584.721
          0.373       -421.560       -574.847       -442.320       -417.481       -578.793
          0.375       -417.528       -568.961       -437.933       -413.317       -572.955
          0.377       -413.358       -562.861       -433.385       -409.000       -566.905
          0.379       -409.465       -557.154       -429.130       -404.960       -561.244
          0.381       -405.637       -551.534       -424.936       -400.979       -555.669
          0.383       -401.873       -545.996       -420.804       -397.055       -550.175
          0.385       -398.171       -540.541       -416.731       -393.188       -544.762
          0.386       -394.530       -535.166       -412.716       -389.376       -539.429
          0.388       -390.948       -529.869       -408.759       -385.619       -534.173
          0.390       -387.240       -524.377       -404.654       -381.721       -528.723
          0.392       -383.774       -519.237       -400.812       -378.072       -523.622
          0.394       -380.364       -514.172       -397.023       -374.474       -518.594
          0.396       -377.006       -509.179       -393.288       -370.927       -513.639
          0.398       -373.700       -504.258       -389.605       -367.429       -508.753
          0.400       -370.444       -499.406       -385.973       -363.979       -503.937
          0.402       -367.237       -494.623       -382.391       -360.578       -499.189
          0.404       -364.078       -489.908       -378.859       -357.222       -494.507
          0.406       -360.802       -485.016       -375.193       -353.740       -489.649
          0.407       -357.736       -480.435       -371.759       -350.479       -485.100
          0.409       -354.713       -475.917       -368.372       -347.261       -480.614
          0.411       -351.732       -471.462       -365.031       -344.087       -476.190
          0.413       -348.792       -467.069       -361.735       -340.956       -471.826
          0.415       -345.892       -462.735       -358.482       -337.866       -467.522
          0.417       -343.030       -458.461       -355.274       -334.818       -463.277
          0.419       -340.206       -454.245       -352.108       -331.810       -459.088
          0.421       -337.272       -449.868       -348.820       -328.687       -454.740
          0.423       -334.521       -445.768       -345.739       -325.760       -450.667
          0.425       -331.805       -441.722       -342.699       -322.871       -446.647
          0.427       -329.121       -437.730       -339.698       -320.020       -442.681
          0.428       -326.470       -433.792       -336.736       -317.206       -438.767
          0.430       -323.851       -429.905       -333.813       -314.428       -434.905
          0.432       -321.262       -426.070       -330.927       -311.686       -431.094
          0.434       -318.568       -422.086       -327.930       -308.838       -427.135
          0.436       -316.039       -418.353       -325.119       -306.167       -423.425
          0.438       -313.539       -414.668       -322.345       -303.531       -419.763
          0.440       -311.065       -411.031       -319.605       -300.927       -416.147
          0.442       -308.619       -407.441       -316.900       -298.357       -412.578
          0.444       -306.199       -403.896       -314.229       -295.819       -409.055
          0.446       -303.804       -400.397       -311.592       -293.313       -405.577
          0.448       -301.434       -396.942       -308.987       -290.838       -402.142
          0.450       -298.966       -393.353       -306.281       -288.265       -398.573
          0.452       -296.646       -389.987       -303.742       -285.853       -395.227
          0.453       -294.349       -386.663       -301.234       -283.470       -391.922
          0.455       -292.076       -383.381       -298.757       -281.116       -388.659
          0.457       -289.825       -380.140       -296.311       -278.791       -385.436
          0.459       -287.596       -376.939       -293.894       -276.494       -382.253
          0.461       -285.389       -373.777       -291.506       -274.225       -379.109
          0.463       -283.203       -370.655       -289.147       -271.983       -376.003
          0.465       -280.925       -367.409       -286.695       -269.652       -372.775
