      freq (eV)        Lorentz     Gen_Plasma      Bren_Borm
          0.200        388.391          0.111        401.815
          0.210        338.688          0.116        351.793
          0.220        297.344          0.122        309.967
          0.230        262.723          0.127        274.721
          0.240        233.560          0.133        244.804
          0.250        208.867          0.139        219.242
          0.260        187.865          0.144        197.265
          0.270        169.937          0.150        178.259
          0.280        154.584          0.155        161.736
          0.290        141.405          0.161        147.296
          0.300        130.066          0.167        134.619
          0.310        120.292          0.172        123.439
          0.320        111.846          0.178        113.537
          0.330        104.522          0.184        104.733
          0.340         98.135          0.189         96.876
          0.350         92.516          0.195         89.839
          0.360         87.508          0.201         83.515
          0.370         82.965          0.206         77.814
          0.380         78.758          0.212         72.659
          0.390         74.779          0.218         67.984
          0.400         70.944          0.224         63.733
          0.410         67.200          0.229         59.857
          0.420         63.522          0.235         56.315
          0.430         59.910          0.241         53.069
          0.440         56.381          0.247         50.088
          0.450         52.962          0.252         47.345
          0.460         49.680          0.258         44.816
          0.470         46.558          0.264         42.478
          0.480         43.615          0.270         40.313
          0.490         40.860          0.276         38.306
          0.500         38.295          0.282         36.440
          0.510         35.920          0.287         34.703
          0.520         33.727          0.293         33.084
          0.530         31.708          0.299         31.571
          0.540         29.852          0.305         30.157
          0.550         28.147          0.311         28.832
          0.560         26.582          0.317         27.589
          0.570         25.147          0.323         26.422
          0.580         23.830          0.329         25.324
          0.590         22.622          0.335         24.290
          0.600         21.514          0.341         23.315
          0.610         20.497          0.347         22.394
          0.620         19.563          0.353         21.525
          0.630         18.707          0.359         20.702
          0.640         17.922          0.365         19.922
          0.650         17.202          0.371         19.183
          0.660         16.542          0.377         18.481
          0.670         15.937          0.383         17.815
          0.680         15.382          0.390         17.181
          0.690         14.874          0.396         16.578
          0.700         14.407          0.402         16.004
          0.710         13.978          0.408         15.456
          0.720         13.583          0.414         14.933
          0.730         13.217          0.421         14.434
          0.740         12.875          0.427         13.957
          0.750         12.554          0.433         13.501
          0.760         12.249          0.440         13.065
          0.770         11.955          0.446         12.647
          0.780         11.669          0.452         12.246
          0.790         11.386          0.459         11.862
          0.800         11.104          0.465         11.494
          0.810         10.820          0.472         11.140
          0.820         10.532          0.478         10.800
          0.830         10.239          0.485         10.474
          0.840          9.942          0.491         10.160
          0.850          9.642          0.498          9.858
          0.860          9.339          0.505          9.567
          0.870          9.035          0.511          9.287
          0.880          8.733          0.518          9.017
          0.890          8.434          0.524          8.757
          0.900          8.140          0.531          8.506
          0.910          7.853          0.538          8.264
          0.920          7.574          0.545          8.031
          0.930          7.304          0.552          7.805
          0.940          7.044          0.558          7.588
          0.950          6.795          0.565          7.377
          0.960          6.556          0.572          7.174
          0.970          6.329          0.579          6.977
          0.980          6.111          0.586          6.787
          0.990          5.905          0.593          6.604
          1.000          5.708          0.600          6.426
          1.010          5.522          0.607          6.253
          1.020          5.345          0.614          6.087
          1.030          5.177          0.621          5.925
          1.040          5.018          0.629          5.769
          1.050          4.866          0.636          5.618
          1.060          4.723          0.643          5.471
          1.070          4.586          0.651          5.329
          1.080          4.457          0.658          5.191
          1.090          4.334          0.665          5.057
          1.100          4.217          0.673          4.927
          1.110          4.106          0.680          4.802
          1.120          4.001          0.688          4.680
          1.130          3.900          0.695          4.562
          1.140          3.804          0.703          4.447
          1.150          3.713          0.711          4.335
          1.160          3.626          0.718          4.227
          1.170          3.543          0.726          4.122
          1.180          3.464          0.734          4.021
          1.190          3.389          0.742          3.922
          1.200          3.317          0.750          3.826
          1.210          3.248          0.758          3.733
          1.220          3.182          0.766          3.642
          1.230          3.120          0.774          3.554
          1.240          3.060          0.782          3.469
          1.250          3.002          0.790          3.386
          1.260          2.947          0.798          3.306
          1.270          2.895          0.806          3.228
          1.280          2.845          0.815          3.152
          1.290          2.797          0.823          3.078
          1.300          2.751          0.831          3.007
          1.310          2.707          0.840          2.938
          1.320          2.664          0.849          2.870
          1.330          2.624          0.857          2.805
          1.340          2.585          0.866          2.741
          1.350          2.548          0.875          2.680
          1.360          2.513          0.883          2.620
          1.370          2.479          0.892          2.562
          1.380          2.446          0.901          2.505
          1.390          2.415          0.910          2.451
          1.400          2.386          0.919          2.398
          1.410          2.357          0.929          2.346
          1.420          2.330          0.938          2.296
          1.430          2.304          0.947          2.248
          1.440          2.279          0.956          2.201
          1.450          2.255          0.966          2.155
          1.460          2.232          0.975          2.111
          1.470          2.211          0.985          2.069
          1.480          2.190          0.995          2.027
          1.490          2.170          1.005          1.987
          1.500          2.151          1.014          1.949
          1.510          2.133          1.024          1.911
          1.520          2.116          1.034          1.875
          1.530          2.100          1.045          1.840
          1.540          2.084          1.055          1.806
          1.550          2.070          1.065          1.773
          1.560          2.056          1.075          1.742
          1.570          2.043          1.086          1.711
          1.580          2.030          1.097          1.682
          1.590          2.019          1.107          1.654
          1.600          2.008          1.118          1.626
          1.610          1.997          1.129          1.600
          1.620          1.988          1.140          1.575
          1.630          1.978          1.151          1.551
          1.640          1.970          1.162          1.528
          1.650          1.962          1.174          1.506
          1.660          1.955          1.185          1.485
          1.670          1.948          1.197          1.464
          1.680          1.942          1.208          1.445
          1.690          1.936          1.220          1.427
          1.700          1.931          1.232          1.409
          1.710          1.927          1.244          1.393
          1.720          1.923          1.256          1.377
          1.730          1.919          1.268          1.363
          1.740          1.916          1.281          1.349
          1.750          1.914          1.293          1.336
          1.760          1.912          1.306          1.324
          1.770          1.910          1.319          1.313
          1.780          1.909          1.332          1.303
          1.790          1.909          1.345          1.294
          1.800          1.909          1.358          1.285
          1.810          1.909          1.372          1.278
          1.820          1.910          1.385          1.271
          1.830          1.911          1.399          1.265
          1.840          1.912          1.413          1.260
          1.850          1.914          1.427          1.256
          1.860          1.917          1.442          1.253
          1.870          1.920          1.456          1.251
          1.880          1.923          1.471          1.250
          1.890          1.927          1.485          1.250
          1.900          1.931          1.500          1.250
          1.910          1.936          1.516          1.252
          1.920          1.941          1.531          1.254
          1.930          1.946          1.547          1.258
          1.940          1.952          1.562          1.262
          1.950          1.958          1.578          1.268
          1.960          1.965          1.595          1.274
          1.970          1.972          1.611          1.282
          1.980          1.980          1.628          1.290
          1.990          1.988          1.645          1.300
          2.000          1.996          1.662          1.310
          2.010          2.005          1.679          1.322
          2.020          2.014          1.697          1.334
          2.030          2.024          1.715          1.348
          2.040          2.034          1.733          1.363
          2.050          2.044          1.751          1.379
          2.060          2.055          1.770          1.396
          2.070          2.066          1.789          1.414
          2.080          2.078          1.808          1.434
          2.090          2.090          1.828          1.454
          2.100          2.103          1.848          1.476
          2.110          2.116          1.868          1.499
          2.120          2.129          1.889          1.524
          2.130          2.143          1.910          1.549
          2.140          2.158          1.931          1.576
          2.150          2.173          1.953          1.604
          2.160          2.188          1.974          1.633
          2.170          2.204          1.997          1.663
          2.180          2.220          2.020          1.695
          2.190          2.237          2.043          1.728
          2.200          2.255          2.066          1.763
          2.210          2.272          2.090          1.798
          2.220          2.291          2.114          1.835
          2.230          2.310          2.139          1.873
          2.240          2.329          2.165          1.913
          2.250          2.349          2.190          1.954
          2.260          2.370          2.217          1.996
          2.270          2.391          2.243          2.039
          2.280          2.413          2.270          2.084
          2.290          2.435          2.298          2.130
          2.300          2.458          2.327          2.177
          2.310          2.481          2.355          2.225
          2.320          2.506          2.385          2.274
          2.330          2.530          2.415          2.325
          2.340          2.556          2.446          2.377
          2.350          2.582          2.477          2.430
          2.360          2.608          2.509          2.484
          2.370          2.636          2.541          2.539
          2.380          2.664          2.575          2.595
          2.390          2.692          2.609          2.652
          2.400          2.722          2.643          2.710
          2.410          2.752          2.679          2.769
          2.420          2.783          2.715          2.828
          2.430          2.814          2.752          2.889
          2.440          2.847          2.790          2.950
          2.450          2.880          2.829          3.012
          2.460          2.914          2.869          3.074
          2.470          2.948          2.909          3.137
          2.480          2.984          2.951          3.201
          2.490          3.020          2.993          3.264
          2.500          3.057          3.037          3.329
          2.510          3.094          3.081          3.393
          2.520          3.133          3.127          3.458
          2.530          3.172          3.173          3.523
          2.540          3.212          3.221          3.588
          2.550          3.253          3.270          3.653
          2.560          3.295          3.319          3.718
          2.570          3.337          3.371          3.783
          2.580          3.380          3.423          3.848
          2.590          3.424          3.476          3.912
          2.600          3.468          3.531          3.976
          2.610          3.513          3.587          4.039
          2.620          3.559          3.645          4.102
          2.630          3.605          3.703          4.164
          2.640          3.651          3.763          4.226
          2.650          3.699          3.824          4.287
          2.660          3.746          3.887          4.347
          2.670          3.794          3.951          4.406
          2.680          3.843          4.016          4.464
          2.690          3.891          4.083          4.522
          2.700          3.940          4.151          4.578
          2.710          3.989          4.220          4.633
          2.720          4.037          4.290          4.686
          2.730          4.086          4.362          4.739
          2.740          4.134          4.435          4.790
          2.750          4.182          4.508          4.840
          2.760          4.230          4.583          4.888
          2.770          4.277          4.659          4.935
          2.780          4.323          4.736          4.980
          2.790          4.368          4.813          5.024
          2.800          4.413          4.891          5.066
          2.810          4.456          4.969          5.107
          2.820          4.498          5.048          5.146
          2.830          4.539          5.127          5.183
          2.840          4.579          5.205          5.219
          2.850          4.616          5.283          5.253
          2.860          4.652          5.361          5.285
          2.870          4.687          5.438          5.316
          2.880          4.719          5.514          5.345
          2.890          4.749          5.589          5.372
          2.900          4.778          5.662          5.398
          2.910          4.804          5.734          5.422
          2.920          4.828          5.803          5.445
          2.930          4.850          5.870          5.466
          2.940          4.870          5.934          5.485
          2.950          4.887          5.996          5.503
          2.960          4.902          6.054          5.520
          2.970          4.915          6.109          5.535
          2.980          4.926          6.160          5.548
          2.990          4.935          6.208          5.560
          3.000          4.942          6.252          5.571
          3.010          4.947          6.291          5.581
          3.020          4.950          6.327          5.589
          3.030          4.951          6.359          5.597
          3.040          4.950          6.386          5.603
          3.050          4.949          6.410          5.608
          3.060          4.945          6.429          5.612
          3.070          4.941          6.445          5.616
          3.080          4.935          6.457          5.618
          3.090          4.928          6.465          5.620
          3.100          4.920          6.470          5.621
          3.110          4.912          6.471          5.621
          3.120          4.903          6.470          5.621
          3.130          4.893          6.466          5.620
          3.140          4.883          6.459          5.619
          3.150          4.872          6.451          5.617
          3.160          4.862          6.440          5.615
          3.170          4.851          6.428          5.613
          3.180          4.840          6.415          5.611
          3.190          4.829          6.400          5.608
          3.200          4.819          6.385          5.606
          3.210          4.808          6.369          5.603
          3.220          4.798          6.353          5.600
          3.230          4.788          6.336          5.598
          3.240          4.779          6.320          5.595
          3.250          4.770          6.304          5.593
          3.260          4.761          6.289          5.591
          3.270          4.753          6.273          5.589
          3.280          4.746          6.259          5.588
          3.290          4.739          6.246          5.587
          3.300          4.733          6.233          5.586
          3.310          4.727          6.222          5.586
          3.320          4.722          6.211          5.586
          3.330          4.718          6.202          5.586
          3.340          4.714          6.194          5.587
          3.350          4.711          6.187          5.589
          3.360          4.708          6.181          5.591
          3.370          4.706          6.177          5.594
          3.380          4.705          6.174          5.597
          3.390          4.704          6.172          5.601
          3.400          4.704          6.172          5.605
          3.410          4.705          6.173          5.610
          3.420          4.706          6.175          5.616
          3.430          4.708          6.179          5.622
          3.440          4.710          6.183          5.628
          3.450          4.713          6.189          5.636
