      freq (eV)         re_eps         im_eps       re_aprox       im_aprox     kramers_re     kramers_im
          0.050       9425.788      -1933.891          2.380          0.007          6.104         -0.097
          0.052       8720.310      -1403.319          2.381          0.007          6.104         -0.101
          0.054       8083.565       -972.773          2.381          0.008          6.104         -0.105
          0.055       7456.303       -602.317          2.381          0.008          6.104         -0.109
          0.057       6901.331       -302.719          2.381          0.008          6.105         -0.112
          0.059       6411.351        -61.395          2.381          0.008          6.105         -0.116
          0.061       5947.444        139.791          2.381          0.009          6.105         -0.120
          0.063       5496.718        313.085          2.381          0.009          6.105         -0.124
          0.065       5122.226        443.098          2.382          0.009          6.105         -0.127
          0.067       4748.039        554.993          2.382          0.009          6.105         -0.131
          0.069       4417.206        643.234          2.382          0.010          6.105         -0.135
          0.071       4100.034        711.006          2.382          0.010          6.105         -0.139
          0.073       3836.912        761.100          2.382          0.010          6.105         -0.142
          0.075       3566.487        806.267          2.383          0.011          6.105         -0.146
          0.077       3332.634        833.775          2.383          0.011          6.105         -0.150
          0.078       3114.555        854.526          2.383          0.011          6.106         -0.154
          0.080       2910.571        869.481          2.383          0.011          6.106         -0.157
          0.082       2724.353        875.516          2.383          0.012          6.106         -0.161
          0.084       2552.600        877.073          2.384          0.012          6.106         -0.165
          0.086       2393.046        874.013          2.384          0.012          6.106         -0.169
          0.088       2242.577        868.843          2.384          0.012          6.106         -0.172
          0.090       2106.556        859.222          2.384          0.013          6.106         -0.176
          0.092       1980.260        850.112          2.385          0.013          6.106         -0.180
          0.094       1861.900        835.133          2.385          0.013          6.107         -0.184
          0.096       1753.115        820.102          2.385          0.014          6.107         -0.187
          0.098       1651.606        805.927          2.385          0.014          6.107         -0.191
          0.099       1559.182        788.423          2.386          0.014          6.107         -0.195
          0.101       1468.965        771.328          2.386          0.014          6.107         -0.199
          0.103       1387.991        752.740          2.386          0.015          6.107         -0.202
          0.105       1314.946        734.864          2.387          0.015          6.107         -0.206
          0.107       1243.995        716.222          2.387          0.015          6.107         -0.210
          0.109       1180.368        697.286          2.387          0.015          6.108         -0.214
          0.111       1107.530        683.047          2.387          0.016          6.108         -0.217
          0.113       1050.981        663.533          2.388          0.016          6.108         -0.221
          0.115        999.751        645.902          2.388          0.016          6.108         -0.225
          0.117        949.279        627.472          2.388          0.017          6.108         -0.229
          0.119        903.046        609.530          2.389          0.017          6.108         -0.232
          0.120        860.571        591.339          2.389          0.017          6.109         -0.236
          0.122        819.405        575.136          2.389          0.017          6.109         -0.240
          0.124        780.132        559.142          2.390          0.018          6.109         -0.244
          0.126        736.866        544.719          2.390          0.018          6.109         -0.248
          0.128        702.558        529.601          2.390          0.018          6.109         -0.251
          0.130        671.040        514.249          2.391          0.018          6.109         -0.255
          0.132        642.000        499.818          2.391          0.019          6.110         -0.259
          0.134        614.146        483.448          2.392          0.019          6.110         -0.263
          0.136        587.204        470.269          2.392          0.019          6.110         -0.266
          0.138        561.918        456.400          2.392          0.020          6.110         -0.270
          0.140        538.049        443.951          2.393          0.020          6.110         -0.274
          0.142        510.976        431.411          2.393          0.020          6.111         -0.278
          0.143        490.485        419.030          2.394          0.020          6.111         -0.282
          0.145        469.769        407.357          2.394          0.021          6.111         -0.285
          0.147        451.643        395.672          2.394          0.021          6.111         -0.289
          0.149        432.932        384.448          2.395          0.021          6.111         -0.293
          0.151        416.472        373.555          2.395          0.021          6.112         -0.297
          0.153        400.111        363.057          2.396          0.022          6.112         -0.300
          0.155        380.549        353.786          2.396          0.022          6.112         -0.304
          0.157        367.101        343.706          2.396          0.022          6.347         -0.308
          0.159        353.333        334.190          2.397          0.023          6.112         -0.312
          0.161        341.125        324.886          2.397          0.023          6.113         -0.316
          0.163        328.361        315.838          2.398          0.023          6.113         -0.319
          0.165        315.933        307.287          2.398          0.023          6.113         -0.323
          0.166        304.739        298.772          2.399          0.024          6.113         -0.327
          0.168        294.682        290.631          2.399          0.024          6.113         -0.331
          0.170        281.514        283.467          2.400          0.024          6.114         -0.335
          0.172        272.560        275.842          2.400          0.024          6.114         -0.338
          0.174        262.479        268.487          2.401          0.025          6.114         -0.342
          0.176        253.191        261.429          2.401          0.025          6.114         -0.346
          0.178        245.622        254.494          2.402          0.025          6.115         -0.350
          0.180        237.704        247.908          2.402          0.026          6.115         -0.353
          0.182        230.368        241.392          2.403          0.026          6.115         -0.357
          0.184        223.552        235.070          2.403          0.026          6.115         -0.361
          0.186        213.742        229.439          2.404          0.026          6.116         -0.365
          0.188        206.860        223.642          2.404          0.027          6.116         -0.369
          0.189        200.322        217.896          2.405          0.027          6.116         -0.372
          0.191        195.078        212.319          2.405          0.027          6.116         -0.376
          0.193        188.077        207.125          2.406          0.028          6.117         -0.380
          0.195        183.273        201.929          2.406          0.028          6.117         -0.384
          0.197        178.621        196.847          2.407          0.028          6.117         -0.388
          0.199        171.079        192.455          2.408          0.028          6.118         -0.392
          0.201        165.659        187.625          2.408          0.029          6.118         -0.395
          0.203        161.267        183.146          2.409          0.029          6.118         -0.399
          0.205        156.865        178.630          2.409          0.029          6.118         -0.403
          0.207        152.418        174.288          2.410          0.029          6.119         -0.407
          0.208        148.893        170.229          2.411          0.030          6.119         -0.411
          0.210        145.255        166.163          2.411          0.030          6.119         -0.414
          0.212        140.476        162.200          2.412          0.030          6.119         -0.418
          0.214        134.917        158.718          2.412          0.031          6.120         -0.422
          0.216        131.806        155.075          2.413          0.031          6.120         -0.426
          0.218        128.466        151.359          2.414          0.031          6.120         -0.430
          0.220        125.871        147.878          2.414          0.031          6.121         -0.434
          0.222        121.996        144.537          2.415          0.032          6.121         -0.437
          0.224        119.818        141.245          2.416          0.032          6.121         -0.441
          0.226        116.312        138.107          2.416          0.032          6.122         -0.445
          0.228        113.458        135.029          2.417          0.033          6.122         -0.449
          0.230        109.923        132.223          2.418          0.033          6.122         -0.453
          0.232        107.341        129.275          2.418          0.033          6.123         -0.457
          0.233        105.348        126.405          2.419          0.033          6.123         -0.460
          0.235        102.926        123.615          2.420          0.034          6.123         -0.464
          0.237        100.057        120.912          2.420          0.034          6.124         -0.468
          0.239         97.723        118.400          2.421          0.034          6.124         -0.472
          0.241         95.909        115.782          2.422          0.035          6.124         -0.476
          0.243         93.599        113.363          2.422          0.035          6.124         -0.479
          0.245         90.693        111.107          2.423          0.035          6.125         -0.483
          0.247         88.368        108.693          2.424          0.035          6.125         -0.487
          0.249         86.501        106.489          2.425          0.036          6.126         -0.491
          0.251         84.079        104.298          2.425          0.036          6.126         -0.495
          0.253         83.089        102.024          2.426          0.036          6.126         -0.499
          0.254         81.517         99.970          2.427          0.037          6.127         -0.503
          0.256         79.352         98.039          2.427          0.037          6.127         -0.506
          0.258         77.658         96.062          2.428          0.037          6.127         -0.510
          0.260         75.291         94.180          2.429          0.037          6.128         -0.514
          0.262         73.297         92.230          2.430          0.038          6.128         -0.518
          0.264         72.664         90.412          2.431          0.038          6.128         -0.522
          0.266         71.383         88.631          2.431          0.038          6.129         -0.526
          0.268         69.443         86.887          2.432          0.039          6.129         -0.530
          0.270         68.835         85.183          2.433          0.039          6.129         -0.533
          0.272         67.551         83.522          2.434          0.039          6.130         -0.537
          0.274         65.801         82.007          2.435          0.039          6.130         -0.541
          0.276         63.852         80.433          2.435          0.040          6.131         -0.545
          0.277         62.601         78.906          2.436          0.040          6.131         -0.549
          0.279         61.438         77.430          2.437          0.040          6.131         -0.553
          0.281         60.556         75.904          2.438          0.041          6.132         -0.557
          0.283         59.249         74.532          2.439          0.041          6.132         -0.561
          0.285         58.808         73.014          2.440          0.041          6.133         -0.564
          0.287         57.827         71.652          2.440          0.041          6.133         -0.568
          0.289         55.836         70.531          2.441          0.042          6.133         -0.572
          0.291         55.167         69.083          2.442          0.042          6.134         -0.576
          0.293         54.238         67.895          2.443          0.042          6.134         -0.580
          0.295         53.343         66.669          2.444          0.043          6.135         -0.584
          0.296         52.076         65.506          2.445          0.043          6.135         -0.588
          0.298         51.531         64.306          2.446          0.043          6.135         -0.592
          0.300         50.602         63.171          2.447          0.043          6.136         -0.595
          0.302         49.205         62.072          2.448          0.044          6.136         -0.600
          0.304         48.605         60.968          2.448          0.044          6.137         -0.603
          0.306         47.505         59.933          2.449          0.044          6.137         -0.607
          0.308         47.101         58.867          2.450          0.045          6.137         -0.611
          0.310         46.288         57.872          2.451          0.045          6.138         -0.615
          0.312         45.661         56.847          2.452          0.045          6.138         -0.619
          0.314         45.117         55.794          2.453          0.045          6.139         -0.623
          0.316         44.150         54.913          2.454          0.046          6.139         -0.627
          0.318         43.356         53.963          2.455          0.046          6.140         -0.631
          0.320         42.541         53.129          2.456          0.046          6.140         -0.635
          0.321         41.991         52.170          2.457          0.047          6.141         -0.639
          0.323         41.503         51.287          2.458          0.047          6.141         -0.642
          0.325         40.572         50.481          2.459          0.047          6.141         -0.646
          0.327         40.295         49.651          2.460          0.047          6.142         -0.650
          0.329         39.569         48.800          2.461          0.048          6.142         -0.654
          0.331         38.548         48.074          2.462          0.048          6.143         -0.658
          0.333         38.020         47.259          2.463          0.048          6.143         -0.662
          0.335         37.633         46.474          2.464          0.049          6.144         -0.666
          0.337         37.282         45.738          2.465          0.049          6.144         -0.670
          0.339         36.567         44.974          2.466          0.049          6.145         -0.674
          0.341         35.982         44.260          2.467          0.050          6.145         -0.678
          0.342         35.926         43.559          2.468          0.050          6.146         -0.682
          0.344         35.495         42.880          2.469          0.050          6.146         -0.686
          0.346         34.701         42.234          2.470          0.050          6.147         -0.690
          0.348         33.920         41.580          2.472          0.051          6.147         -0.694
          0.350         33.756         40.930          2.473          0.051          6.148         -0.697
          0.352         33.107         40.314          2.474          0.051          6.148         -0.701
          0.354         33.071         39.652          2.475          0.052          6.149         -0.705
          0.356         32.544         39.016          2.476          0.052          6.149         -0.709
          0.358         32.226         38.435          2.477          0.052          6.150         -0.713
          0.360         31.913         37.840          2.478          0.053          6.150         -0.717
          0.362         30.764         37.314          2.479          0.053          6.151         -0.721
          0.363         30.661         36.761          2.480          0.053          6.151         -0.725
          0.365         30.058         36.225          2.482          0.053          6.152         -0.729
          0.367         30.051         35.665          2.483          0.054          6.152         -0.733
          0.369         29.539         35.124          2.484          0.054          6.153         -0.737
          0.371         29.121         34.590          2.485          0.054          6.153         -0.741
          0.373         28.893         34.084          2.486          0.055          6.154         -0.745
          0.375         28.555         33.587          2.487          0.055          6.154         -0.749
          0.377         28.105         33.107          2.489          0.055          6.155         -0.753
          0.379         27.944         32.637          2.490          0.056          6.155         -0.757
          0.381         27.469         32.157          2.491          0.056          6.156         -0.761
          0.383         26.975         31.706          2.492          0.056          6.156         -0.765
          0.385         26.962         31.234          2.494          0.056          6.157         -0.769
          0.386         26.629         30.783          2.495          0.057          6.157         -0.773
          0.388         26.273         30.372          2.496          0.057          6.158         -0.777
          0.390         25.723         29.937          2.497          0.057          6.159         -0.781
          0.392         25.522         29.517          2.499          0.058          6.159         -0.785
          0.394         25.394         29.098          2.500          0.058          6.160         -0.789
          0.396         24.839         28.700          2.501          0.058          6.160         -0.793
          0.398         24.753         28.323          2.502          0.059          6.161         -0.797
          0.400         24.737         27.889          2.504          0.059          6.161         -0.801
          0.402         24.389         27.526          2.505          0.059          6.162         -0.804
          0.404         24.007         27.165          2.506          0.060          6.162         -0.808
          0.406         23.449         26.817          2.508          0.060          6.163         -0.813
