      freq (eV)    K-K (Drude)          Drude    Marachevsky     Gen_plasma      Bren_Borm         Lor-Dr
          0.050      22419.467      22084.917      11600.261      32746.896      12645.737      12157.154
          0.052      21062.371      20731.308      10972.084      30370.267      11949.386      11495.841
          0.054      19827.252      19499.745      10395.498      28243.334      11310.839      10889.052
          0.055      18694.094      18370.220       9862.167      26322.816      10720.748      10327.974
          0.057      17662.354      17342.144       9372.733      24600.345      10179.722       9813.248
          0.059      16715.294      16398.790       8920.063      23041.617       9679.781       9337.341
          0.061      15843.786      15531.022       8500.465      21626.515       9216.769       8896.342
          0.063      15035.868      14726.889       8108.742      20331.481       8784.883       8484.767
          0.065      14293.026      13987.831       7746.126      19155.304       8385.421       8103.889
          0.067      13601.383      13300.004       7406.294      18072.952       8011.361       7747.048
          0.069      12962.827      12665.250       7090.567      17084.801       7664.109       7415.613
          0.071      12368.958      12075.183       6795.153      16175.561       7339.449       7105.589
          0.073      11815.657      11525.678       6518.307      15337.048       7035.424       6815.131
          0.075      11296.660      11010.485       6257.154      14558.212       7218.307       6541.210
          0.077      10814.112      10531.708       6013.013      13840.870       6709.312       6285.200
          0.078      10362.325      10083.672       5783.230      13175.296       6399.387       6044.307
          0.080       9936.563       9661.657       5565.577      12553.502       6131.370       5816.188
          0.082       9538.935       9267.730       5361.302      11977.642       5889.136       5602.142
          0.084       9165.068       8897.534       5168.318      11440.537       5664.789       5399.975
          0.086       8813.087       8549.193       4985.795      10938.787       5455.288       5208.810
          0.088       8479.615       8219.344       4812.095      10466.978       5257.601       5026.928
          0.090       8166.586       7909.883       4648.337      10027.296       5072.374       4855.494
          0.092       7869.322       7616.166       4492.174       9612.674       4896.564       4692.046
          0.094       7589.654       7339.986       4344.657       9225.230       4731.104       4537.679
          0.096       7324.844       7078.622       4204.428       8860.765       4574.294       4390.969
          0.098       7073.848       6831.029       4071.007       8517.495       4425.477       4251.411
          0.099       6835.713       6596.253       3943.955       8193.808       4284.070       4118.539
          0.101       6607.260       6371.148       3821.629       7885.135       4148.180       3990.634
          0.103       6393.515       6160.654       3706.778       7598.003       4020.808       3870.568
          0.105       6190.115       5960.458       3597.117       7326.288       3899.372       3755.948
          0.107       5996.396       5769.898       3492.335       7068.904       3783.493       3646.447
          0.109       5811.749       5588.363       3392.142       6824.863       3672.825       3541.760
          0.111       5626.566       5406.405       3291.340       6581.396       3561.611       3436.454
          0.113       5458.824       5241.680       3199.750       6361.983       3460.669       3340.788
          0.115       5298.567       5084.393       3111.992       6153.375       3364.042       3249.139
          0.117       5145.353       4934.102       3027.852       5954.872       3271.482       3161.282
          0.119       4998.772       4790.397       2947.132       5765.832       3182.759       3077.009
          0.120       4858.442       4652.897       2869.647       5585.665       3097.660       2996.125
          0.122       4724.011       4521.251       2795.223       5413.821       3015.985       2918.448
          0.124       4595.150       4395.128       2723.702       5249.798       2937.551       2843.811
          0.126       4465.188       4268.000       2651.384       5085.077       2857.168       2768.353
          0.128       4346.824       4152.283       2585.357       4935.678       2784.851       2699.468
          0.130       4233.160       4041.221       2521.801       4792.777       2715.288       2633.170
          0.132       4123.947       3934.566       2460.594       4656.002       2648.338       2569.330
          0.134       4018.955       3832.090       2401.619       4525.008       2583.867       2507.826
          0.136       3917.968       3733.574       2344.770       4399.473       2521.754       2448.546
          0.138       3820.782       3638.819       2289.943       4279.099       2461.883       2391.381
          0.140       3727.208       3547.633       2237.043       4163.607       2404.146       2336.231
          0.142       3632.416       3455.311       2183.342       4047.023       2345.565       2280.253
          0.143       3545.710       3370.910       2134.121       3940.753       2291.899       2228.951
          0.145       3462.105       3289.571       2086.569       3838.622       2240.075       2179.392
          0.147       3381.455       3211.147       2040.609       3740.417       2190.011       2131.498
          0.149       3303.620       3135.500       1996.172       3645.940       2141.626       2085.195
          0.151       3228.471       3062.501       1953.189       3555.005       2094.845       2040.412
          0.153       3155.884       2992.027       1911.598       3467.436       2049.597       1997.083
          0.155       3082.118       2920.445       1869.256       3378.715       2003.552       1952.975
          0.157       3014.434       2854.800       1830.337       3297.554       1961.247       1912.438
          0.159       2948.979       2791.348       1792.637       3219.288       1920.282       1873.172
          0.161       2885.655       2729.992       1756.104       3143.781       1880.601       1835.126
          0.163       2824.370       2670.641       1720.692       3070.906       1842.151       1798.249
          0.165       2765.036       2613.208       1686.353       3000.542       1804.880       1762.493
          0.166       2707.571       2557.612       1653.045       2932.574       1768.741       1727.812
          0.168       2651.897       2503.774       1620.727       2866.895       1733.688       1694.165
          0.170       2595.147       2448.922       1587.734       2800.120       1697.915       1659.817
          0.172       2542.921       2398.468       1557.327       2738.827       1664.957       1628.163
          0.174       2492.272       2349.561       1527.795       2679.530       1632.959       1597.424
          0.176       2443.136       2302.136       1499.107       2622.142       1601.884       1567.563
          0.178       2395.454       2256.136       1471.229       2566.583       1571.696       1538.547
          0.180       2349.167       2211.503       1444.131       2512.777       1541.651       1510.345
          0.182       2304.222       2168.184       1417.784       2460.649       1513.138       1482.926
          0.184       2260.568       2126.128       1392.161       2410.132       1485.417       1456.261
          0.186       2215.955       2083.168       1365.942       2358.622       1457.059       1428.978
          0.188       2174.797       2043.553       1341.722       2311.207       1430.872       1403.776
          0.189       2134.786       2005.060       1318.149       2265.212       1405.391       1379.248
          0.191       2095.880       1967.645       1295.199       2220.580       1380.591       1355.370
          0.193       2058.038       1931.270       1272.851       2177.259       1356.447       1332.119
          0.195       2021.222       1895.896       1251.084       2135.197       1332.936       1309.472
          0.197       1985.394       1861.486       1229.877       2094.346       1310.038       1287.410
          0.199       1948.710       1826.270       1208.138       2052.603       1286.571       1264.795
          0.201       1914.802       1793.733       1188.023       2014.096       1264.862       1243.870
          0.203       1881.781       1762.059       1168.412       1976.667       1243.703       1223.470
          0.205       1849.614       1731.219       1149.289       1940.274       1223.075       1203.577
          0.207       1818.273       1701.182       1130.637       1904.881       1202.960       1184.176
          0.208       1787.730       1671.921       1112.442       1870.452       1183.342       1165.249
          0.210       1757.956       1643.410       1094.688       1836.950       1164.204       1146.782
          0.212       1728.928       1615.624       1077.360       1804.345       1145.531       1128.760
          0.214       1699.149       1587.130       1059.568       1770.955       1126.360       1110.253
          0.216       1671.573       1560.755       1043.075       1740.090       1108.594       1093.099
          0.218       1644.669       1535.033       1026.969       1710.027       1091.249       1076.347
          0.220       1618.415       1509.942       1011.238       1680.741       1074.311       1059.986
          0.222       1592.791       1485.462        995.870       1652.203       1057.768       1044.002
          0.224       1567.777       1461.574        980.855       1624.389       1041.607       1028.385
          0.226       1543.353       1438.259        966.181       1597.274       1025.817       1013.124
          0.228       1519.501       1415.497        951.838       1570.835       1010.387        998.206
          0.230       1494.991       1392.118        937.087       1543.711        994.521        982.864
          0.232       1472.257       1370.440        923.393       1518.592        979.794        968.622
          0.233       1450.043       1349.266        910.001       1494.084        965.395        954.694
          0.235       1428.333       1328.580        896.902       1470.166        951.315        941.070
          0.237       1407.111       1308.366        884.087       1446.822        937.542        927.742
          0.239       1386.364       1288.611        871.549       1424.031        924.069        914.701
          0.241       1366.076       1269.300        859.279       1401.777        910.887        901.940
          0.243       1346.235       1250.421        847.270       1380.044        897.988        889.450
          0.245       1325.817       1231.001        834.903       1357.711        884.705        876.586
          0.247       1306.851       1212.968        823.406       1336.995        872.361        864.629
          0.249       1288.294       1195.329        812.148       1316.753        860.275        852.919
          0.251       1270.133       1178.073        801.123       1296.969        848.441        841.452
          0.253       1252.357       1161.188        790.324       1277.630        836.852        830.219
          0.254       1234.955       1144.665        779.745       1258.722        825.500        819.215
          0.256       1217.917       1128.492        769.380       1240.234        814.380        808.433
          0.258       1200.364       1111.835        758.694       1221.211        802.918        797.317
          0.260       1184.041       1096.352        748.750       1203.545        792.253        786.973
          0.262       1168.053       1081.190        739.003       1186.261        781.802        776.834
          0.264       1152.389       1066.341        729.448       1169.349        771.557        766.893
          0.266       1137.042       1051.796        720.079       1152.798        761.515        757.147
          0.268       1122.002       1037.547        710.893       1136.598        751.669        747.590
          0.270       1107.261       1023.587        701.883       1120.739        742.015        738.217
          0.272       1092.812       1009.906        693.047       1105.212        732.547        729.023
          0.274       1077.909        995.801        683.926       1089.216        722.777        719.534
          0.276       1064.035        982.672        675.430       1074.341        713.677        710.694
          0.277       1050.429        969.803        667.094       1059.771        704.749        702.020
          0.279       1037.086        957.184        658.914       1045.497        695.989        693.508
          0.281       1023.998        944.811        650.885       1031.512        687.393        685.153
          0.283       1011.159        932.677        643.004       1017.807        678.957        676.952
          0.285        998.562        920.775        635.267       1004.375        670.677        668.901
          0.287        986.201        909.100        627.672        991.209        662.548        660.996
          0.289        973.439        897.049        619.825        977.630        654.152        652.830
          0.291        961.546        885.822        612.508        964.988        646.324        645.214
          0.293        949.871        874.804        605.322        952.592        638.637        637.735
          0.295        938.410        863.991        598.264        940.435        631.088        630.387
          0.296        927.158        853.378        591.330        928.511        623.673        623.170
          0.298        916.109        842.959        584.518        916.813        616.389        616.078
          0.300        905.258        832.731        577.825        905.337        609.233        609.111
          0.302        894.045        822.164        570.904        893.491        601.835        601.906
          0.304        883.587        812.311        564.447        882.452        594.933        595.183
          0.306        873.314        802.634        558.100        871.618        588.150        588.574
          0.308        863.221        793.130        551.861        860.984        581.483        582.078
          0.310        853.303        783.793        545.728        850.544        574.931        575.692
          0.312        843.558        774.621        539.698        840.296        568.489        569.413
          0.314        833.980        765.609        533.769        830.232        562.156        563.238
          0.316        824.566        756.754        527.939        820.350        555.929        557.167
          0.318        814.830        747.598        521.907        810.139        549.487        550.883
          0.320        805.742        739.053        516.273        800.615        543.472        545.015
          0.321        796.806        730.654        510.731        791.260        537.555        539.242
          0.323        788.020        722.397        505.279        782.069        531.735        533.563
          0.325        779.381        714.280        499.916        773.039        526.011        527.976
          0.327        770.884        706.300        494.639        764.166        520.379        522.479
          0.329        762.527        698.452        489.447        755.446        514.838        517.069
          0.331        753.878        690.332        484.071        746.428        509.102        511.467
          0.333        745.798        682.749        479.047        738.012        503.742        506.231
          0.335        737.850        675.291        474.101        729.739        498.466        501.078
          0.337        730.029        667.954        469.234        721.605        493.274        496.005
          0.339        722.333        660.736        464.442        713.607        488.164        491.011
          0.341        714.760        653.635        459.725        705.744        483.133        486.094
          0.342        707.307        646.648        455.080        698.010        478.181        481.253
          0.344        699.972        639.773        450.507        690.405        473.305        476.485
          0.346        692.374        632.653        445.769        682.534        468.254        471.545
          0.348        685.272        626.000        441.337        675.181        463.530        466.925
          0.350        678.280        619.451        436.973        667.948        458.878        462.375
          0.352        671.396        613.004        432.674        660.832        454.297        457.892
          0.354        664.617        606.658        428.439        653.830        449.785        453.476
          0.356        657.942        600.410        424.268        646.940        445.340        449.126
          0.358        651.368        594.258        420.158        640.160        440.962        444.840
          0.360        644.893        588.201        416.109        633.486        436.649        440.616
          0.362        638.183        581.924        411.911        626.575        432.177        436.237
          0.363        631.906        576.054        407.983        620.115        427.993        432.139
          0.365        625.723        570.273        404.111        613.755        423.870        428.100
          0.367        619.631        564.578        400.296        607.493        419.807        424.119
          0.369        613.629        558.969        396.535        601.328        415.803        420.195
          0.371        607.714        553.442        392.828        595.257        411.857        416.326
          0.373        601.886        547.998        389.174        589.279        407.967        412.513
          0.375        596.143        542.634        385.571        583.392        404.132        408.753
          0.377        590.187        537.072        381.834        577.290        400.155        404.853
          0.379        584.612        531.867        378.335        571.583        396.431        401.200
          0.381        579.117        526.737        374.885        565.961        392.760        397.598
          0.383        573.700        521.682        371.483        560.423        389.140        394.046
          0.385        568.360        516.699        368.127        554.967        385.570        390.543
          0.386        563.095        511.788        364.818        549.590        382.050        387.088
          0.388        557.904        506.946        361.555        544.293        378.578        383.679
          0.390        552.518        501.924        358.167        538.800        374.975        380.142
          0.392        547.474        497.221        354.994        533.659        371.601        376.828
          0.394        542.500        492.585        351.864        528.593        368.272        373.558
          0.396        537.595        488.013        348.776        523.599        364.988        370.332
          0.398        532.757        483.505        345.729        518.677        361.749        367.149
          0.400        527.984        479.059        342.723        513.824        358.553        364.008
          0.402        523.277        474.674        339.756        509.040        355.400        360.908
          0.404        518.633        470.349        336.829        504.324        352.288        357.850
          0.406        513.813        465.861        333.790        499.431        349.058        354.673
