      freq (eV)        Lorentz     Gen_Plasma      Bren_Borm
          0.050          0.862          0.027         94.078
          0.052          0.897          0.029         92.178
          0.054          0.932          0.030         90.352
          0.055          0.967          0.031         88.586
          0.057          1.002          0.032         86.893
          0.059          1.038          0.033         85.259
          0.061          1.073          0.034         83.681
          0.063          1.109          0.035         82.148
          0.065          1.146          0.036         80.672
          0.067          1.182          0.037         79.235
          0.069          1.219          0.038         77.850
          0.071          1.256          0.039         76.508
          0.073          1.293          0.040         75.205
          0.075          1.331          0.041         73.934
          0.077          1.368          0.042         72.705
          0.078          1.406          0.043         71.512
          0.080          1.445          0.044         70.346
          0.082          1.483          0.045         69.218
          0.084          1.522          0.046         68.121
          0.086          1.562          0.048         67.054
          0.088          1.602          0.049         66.009
          0.090          1.642          0.050         64.997
          0.092          1.682          0.051         64.006
          0.094          1.723          0.052         63.046
          0.096          1.764          0.053         62.110
          0.098          1.805          0.054         61.198
          0.099          1.847          0.055         60.309
          0.101          1.890          0.056         59.432
          0.103          1.933          0.057         58.591
          0.105          1.975          0.058         57.769
          0.107          2.019          0.059         56.967
          0.109          2.063          0.060         56.185
          0.111          2.109          0.061         55.381
          0.113          2.154          0.062         54.635
          0.115          2.199          0.063         53.906
          0.117          2.245          0.064         53.194
          0.119          2.291          0.066         52.498
          0.120          2.338          0.067         51.818
          0.122          2.386          0.068         51.153
          0.124          2.434          0.069         50.503
          0.126          2.485          0.070         49.834
          0.128          2.534          0.071         49.212
          0.130          2.583          0.072         48.604
          0.132          2.634          0.073         48.008
          0.134          2.685          0.074         47.426
          0.136          2.736          0.075         46.855
          0.138          2.788          0.076         46.296
          0.140          2.841          0.077         45.749
          0.142          2.898          0.078         45.185
          0.143          2.952          0.079         44.661
          0.145          3.007          0.080         44.147
          0.147          3.063          0.081         43.643
          0.149          3.119          0.082         43.149
          0.151          3.177          0.084         42.665
          0.153          3.235          0.085         42.190
          0.155          3.297          0.086         41.701
          0.157          3.357          0.087         41.244
          0.159          3.417          0.088         40.797
          0.161          3.479          0.089         40.358
          0.163          3.541          0.090         39.927
          0.165          3.605          0.091         39.504
          0.166          3.669          0.092         39.089
          0.168          3.734          0.093         38.681
          0.170          3.804          0.094         38.260
          0.172          3.871          0.095         37.867
          0.174          3.939          0.096         37.482
          0.176          4.009          0.097         37.103
          0.178          4.079          0.098         36.730
          0.180          4.150          0.099         36.365
          0.182          4.223          0.101         36.005
          0.184          4.297          0.102         35.652
          0.186          4.375          0.103         35.286
          0.188          4.452          0.104         34.945
          0.189          4.529          0.105         34.610
          0.191          4.608          0.106         34.280
          0.193          4.687          0.107         33.955
          0.195          4.769          0.108         33.636
          0.197          4.851          0.109         33.322
          0.199          4.939          0.110         32.997
          0.201          5.025          0.111         32.693
          0.203          5.111          0.112         32.394
          0.205          5.200          0.113         32.100
          0.207          5.289          0.114         31.810
          0.208          5.380          0.115         31.525
          0.210          5.473          0.117         31.244
          0.212          5.567          0.118         30.967
          0.214          5.668          0.119         30.681
          0.216          5.766          0.120         30.413
          0.218          5.865          0.121         30.149
          0.220          5.966          0.122         29.888
          0.222          6.069          0.123         29.632
          0.224          6.173          0.124         29.379
          0.226          6.280          0.125         29.131
          0.228          6.388          0.126         28.885
          0.230          6.504          0.127         28.631
          0.232          6.616          0.128         28.392
          0.233          6.730          0.129         28.158
          0.235          6.845          0.130         27.926
          0.237          6.963          0.131         27.698
          0.239          7.083          0.133         27.472
          0.241          7.205          0.134         27.250
          0.243          7.330          0.135         27.031
          0.245          7.463          0.136         26.804
          0.247          7.591          0.137         26.590
          0.249          7.722          0.138         26.380
          0.251          7.855          0.139         26.173
          0.253          7.990          0.140         25.968
          0.254          8.128          0.141         25.766
          0.256          8.268          0.142         25.566
          0.258          8.418          0.143         25.359
          0.260          8.563          0.144         25.165
          0.262          8.710          0.145         24.973
          0.264          8.860          0.146         24.784
          0.266          9.012          0.148         24.597
          0.268          9.166          0.149         24.412
          0.270          9.324          0.150         24.230
          0.272          9.483          0.151         24.049
          0.274          9.654          0.152         23.862
          0.276          9.819          0.153         23.687
          0.277          9.986          0.154         23.513
          0.279         10.156          0.155         23.342
          0.281         10.328          0.156         23.172
          0.283         10.503          0.157         23.005
          0.285         10.681          0.158         22.839
          0.287         10.860          0.159         22.676
          0.289         11.052          0.160         22.506
          0.291         11.237          0.162         22.346
          0.293         11.425          0.163         22.188
          0.295         11.614          0.164         22.032
          0.296         11.806          0.165         21.878
          0.298         12.001          0.166         21.726
          0.300         12.197          0.167         21.575
          0.302         12.406          0.168         21.418
          0.304         12.607          0.169         21.270
          0.306         12.810          0.170         21.125
          0.308         13.014          0.171         20.980
          0.310         13.221          0.172         20.838
          0.312         13.429          0.173         20.697
          0.314         13.638          0.174         20.557
          0.316         13.849          0.176         20.419
          0.318         14.072          0.177         20.275
          0.320         14.285          0.178         20.140
          0.321         14.499          0.179         20.007
          0.323         14.714          0.180         19.874
          0.325         14.929          0.181         19.744
          0.327         15.145          0.182         19.614
          0.329         15.361          0.183         19.486
          0.331         15.587          0.184         19.352
          0.333         15.802          0.185         19.227
          0.335         16.016          0.186         19.102
          0.337         16.230          0.187         18.979
          0.339         16.442          0.189         18.858
          0.341         16.652          0.190         18.737
          0.342         16.860          0.191         18.618
          0.344         17.067          0.192         18.499
          0.346         17.281          0.193         18.376
          0.348         17.482          0.194         18.260
          0.350         17.679          0.195         18.145
          0.352         17.873          0.196         18.032
          0.354         18.063          0.197         17.919
          0.356         18.249          0.198         17.808
          0.358         18.430          0.199         17.697
          0.360         18.605          0.200         17.588
          0.362         18.785          0.202         17.474
          0.363         18.949          0.203         17.366
          0.365         19.107          0.204         17.260
          0.367         19.258          0.205         17.155
          0.369         19.403          0.206         17.050
          0.371         19.540          0.207         16.947
          0.373         19.669          0.208         16.844
          0.375         19.791          0.209         16.743
          0.377         19.910          0.210         16.637
          0.379         20.015          0.211         16.537
          0.381         20.110          0.213         16.438
          0.383         20.197          0.214         16.340
          0.385         20.274          0.215         16.243
          0.386         20.342          0.216         16.147
          0.388         20.400          0.217         16.052
          0.390         20.450          0.218         15.952
          0.392         20.488          0.219         15.858
          0.394         20.516          0.220         15.765
          0.396         20.533          0.221         15.673
          0.398         20.541          0.222         15.582
          0.400         20.538          0.223         15.491
          0.402         20.526          0.225         15.402
          0.404         20.503          0.226         15.313
          0.406         20.468          0.227         15.220
          0.407         20.425          0.228         15.132
          0.409         20.372          0.229         15.045
          0.411         20.310          0.230         14.959
          0.413         20.238          0.231         14.874
          0.415         20.157          0.232         14.789
          0.417         20.067          0.233         14.705
          0.419         19.969          0.234         14.622
          0.421         19.857          0.236         14.535
          0.423         19.742          0.237         14.453
          0.425         19.619          0.238         14.371
          0.427         19.489          0.239         14.291
          0.428         19.353          0.240         14.211
          0.430         19.209          0.241         14.131
          0.432         19.059          0.242         14.053
          0.434         18.895          0.243         13.970
          0.436         18.734          0.244         13.893
          0.438         18.567          0.245         13.816
          0.440         18.396          0.247         13.740
          0.442         18.220          0.248         13.664
          0.444         18.041          0.249         13.589
          0.446         17.857          0.250         13.514
          0.448         17.671          0.251         13.440
          0.450         17.471          0.252         13.363
          0.452         17.279          0.253         13.290
          0.453         17.085          0.254         13.217
          0.455         16.888          0.255         13.146
          0.457         16.690          0.257         13.074
          0.459         16.491          0.258         13.004
          0.461         16.291          0.259         12.933
          0.463         16.090          0.260         12.864
          0.465         15.878          0.261         12.791
          0.467         15.677          0.262         12.722
          0.469         15.475          0.263         12.654
          0.471         15.274          0.264         12.586
          0.472         15.073          0.265         12.519
          0.474         14.873          0.267         12.452
          0.476         14.674          0.268         12.386
          0.478         14.476          0.269         12.320
          0.480         14.269          0.270         12.252
          0.482         14.074          0.271         12.187
          0.484         13.880          0.272         12.122
          0.486         13.688          0.273         12.059
          0.488         13.498          0.274         11.995
          0.490         13.310          0.275         11.932
          0.492         13.123          0.277         11.869
          0.493         12.939          0.278         11.807
          0.495         12.748          0.279         11.742
          0.497         12.568          0.280         11.681
          0.499         12.391          0.281         11.620
          0.501         12.216          0.282         11.560
          0.503         12.043          0.283         11.500
          0.505         11.873          0.284         11.440
          0.507         11.706          0.286         11.381
          0.509         11.532          0.287         11.319
          0.511         11.370          0.288         11.260
          0.513         11.210          0.289         11.202
          0.515         11.053          0.290         11.145
          0.518         10.747          0.292         11.030
          0.520         10.598          0.293         10.974
          0.522         10.444          0.295         10.915
          0.524         10.300          0.296         10.859
          0.526         10.159          0.297         10.803
          0.528         10.020          0.298         10.748
          0.530          9.884          0.299         10.694
          0.534          9.620          0.301         10.585
          0.536          9.491          0.302         10.532
          0.537          9.365          0.304         10.478
          0.539          9.236          0.305         10.422
          0.543          8.997          0.307         10.318
          0.545          8.881          0.308         10.266
          0.547          8.767          0.309         10.214
          0.549          8.656          0.310         10.163
          0.553          8.435          0.313         10.058
          0.555          8.330          0.314         10.008
          0.557          8.228          0.315          9.958
          0.559          8.128          0.316          9.908
          0.562          7.935          0.318          9.809
          0.564          7.842          0.319          9.761
          0.566          7.750          0.321          9.712
          0.570          7.569          0.323          9.613
          0.572          7.483          0.324          9.566
          0.576          7.319          0.326          9.471
          0.578          7.239          0.327          9.424
          0.580          7.161          0.329          9.378
          0.584          7.007          0.331          9.283
          0.585          6.935          0.332          9.237
          0.589          6.795          0.334          9.147
          0.591          6.728          0.336          9.102
          0.595          6.598          0.338          9.013
          0.597          6.532          0.339          8.966
          0.601          6.412          0.341          8.879
          0.603          6.354          0.342          8.836
          0.606          6.243          0.345          8.750
          0.608          6.189          0.346          8.707
          0.612          6.086          0.348          8.623
          0.614          6.034          0.349          8.578
          0.618          5.940          0.352          8.495
          0.620          5.892          0.353          8.452
          0.623          5.821          0.355          8.385
          0.626          5.750          0.357          8.317
          0.629          5.684          0.359          8.250
          0.633          5.620          0.361          8.183
          0.636          5.560          0.363          8.117
          0.639          5.501          0.365          8.049
          0.642          5.445          0.367          7.982
          0.646          5.392          0.369          7.915
          0.649          5.341          0.371          7.847
          0.652          5.293          0.373          7.780
          0.656          5.246          0.375          7.712
          0.659          5.203          0.377          7.644
          0.663          5.162          0.379          7.577
          0.667          5.124          0.381          7.509
          0.670          5.088          0.384          7.441
          0.674          5.055          0.386          7.374
          0.677          5.025          0.388          7.306
          0.681          4.996          0.390          7.238
          0.685          4.970          0.393          7.170
          0.689          4.947          0.395          7.102
          0.693          4.926          0.397          7.035
          0.697          4.906          0.400          6.967
          0.701          4.889          0.402          6.898
          0.705          4.874          0.405          6.829
          0.709          4.862          0.407          6.761
          0.713          4.851          0.410          6.693
          0.717          4.841          0.412          6.625
          0.721          4.834          0.415          6.558
          0.725          4.828          0.418          6.488
          0.729          4.823          0.420          6.421
          0.734          4.819          0.423          6.353
          0.738          4.817          0.426          6.284
          0.742          4.814          0.429          6.216
          0.747          4.813          0.431          6.147
          0.751          4.811          0.434          6.079
          0.756          4.809          0.437          6.010
          0.761          4.807          0.440          5.942
          0.765          4.803          0.443          5.874
          0.770          4.799          0.446          5.804
          0.775          4.792          0.449          5.736
          0.780          4.784          0.452          5.667
