      freq (eV)    K-K (Drude)          Drude    Marachevsky     Gen_plasma      Bren_Borm         Lor-Dr
          0.200       1241.916        759.208       1197.487       2032.199       1275.075       1253.715
          0.210       1139.058        698.952       1098.389       1843.928       1168.194       1150.633
          0.220       1048.630        645.666       1011.238       1680.741       1074.311       1059.986
          0.230        968.695        598.307        934.178       1538.371        991.393        979.839
          0.240        897.684        556.020        865.704       1413.424        917.789        908.622
          0.250        834.311        518.102        804.580       1303.168        852.151        845.047
          0.260        777.512        483.967        749.787       1205.386        793.366        788.052
          0.270        726.405        453.124        700.477       1118.266        740.507        736.753
          0.280        680.251        425.162        655.938       1040.311        692.804        690.412
          0.290        638.428        399.730        615.573        970.281        649.603        648.404
          0.300        600.407        376.530        578.874        907.135        610.354        610.203
          0.310        565.739        355.308        545.408        850.000        574.589        575.359
          0.320        534.041        335.844        514.805        798.137        541.905        543.487
          0.330        504.980        317.948        486.748        750.917        511.958        514.256
          0.340        478.271        301.455        460.959        707.800        484.450        487.381
          0.350        453.667        286.222        437.201        668.326        459.121        462.612
          0.360        430.949        272.123        415.264        632.095        435.749        439.735
          0.370        409.931        259.049        394.968        598.761        414.134        418.559
          0.380        390.445        246.901        376.150        568.023        394.106        398.919
          0.390        372.346        235.593        358.672        539.619        375.513        380.669
          0.400        355.505        225.051        342.408        513.317        358.219        363.680
          0.410        339.807        215.206        327.249        488.916        342.107        347.837
          0.420        325.151        205.998        313.095        466.237        327.071        333.038
          0.430        311.447        197.372        299.860        445.121        313.017        319.194
          0.440        298.613        189.281        287.466        425.428        299.862        306.222
          0.450        286.576        181.682        275.843        407.032        287.529        294.052
          0.460        275.273        174.534        264.927        389.823        275.952        282.617
          0.470        264.644        167.804        254.663        373.700        265.071        271.858
          0.480        254.636        161.458        244.999        358.574        254.830        261.725
          0.490        245.203        155.469        235.890        344.363        245.180        252.167
          0.500        236.300        149.810        227.294        330.997        236.076        243.143
          0.510        227.888        144.456        219.172        318.408        227.478        234.612
          0.520        219.932        139.387        211.490        306.539        219.349        226.540
          0.530        212.400        134.582        204.217        295.334        211.655        218.893
          0.540        205.261        130.024        197.325        284.746        204.367        211.643
          0.550        198.489        125.696        190.787        274.729        197.455        204.761
          0.560        192.059        121.582        184.579        265.244        190.894        198.223
          0.570        185.948        117.669        178.680        256.253        184.661        192.007
          0.580        180.135        113.944        173.068        247.723        178.734        186.091
          0.590        174.601        110.394        167.727        239.623        173.094        180.457
          0.600        169.329        107.010        162.638        231.924        167.722        175.085
          0.610        164.302        103.780        157.786        224.600        162.602        169.961
          0.620        159.505        100.696        153.156        217.627        157.717        165.069
          0.630        154.925         97.749        148.735        210.983        153.054        160.396
          0.640        150.547         94.931        144.510        204.648        148.600        155.927
          0.650        146.362         92.234        140.471        198.602        144.342        151.652
          0.660        142.356         89.652        136.605        192.829        140.269        147.559
          0.670        138.521         87.179        132.904        187.312        136.370        143.638
          0.680        134.846         84.807        129.359        182.037        132.636        139.879
          0.690        131.324         82.532        125.960        176.988        129.056        136.274
          0.700        127.944         80.349        122.699        172.155        125.624        132.814
          0.710        124.701         78.252        119.570        167.523        122.330        129.491
          0.720        121.586         76.238        116.564        163.083        119.168        126.298
          0.730        118.592         74.301        113.677        158.824        116.131        123.228
          0.740        115.714         72.438        110.900        154.736        113.211        120.276
          0.750        112.946         70.645        108.230        150.810        110.404        117.434
          0.760        110.282         68.920        105.660        147.038        107.703        114.698
          0.770        107.717         67.257        103.186        143.411        105.103        112.062
          0.780        105.246         65.655        100.803        139.923        102.599        109.522
          0.790        102.864         64.110         98.506        136.566        100.186        107.072
          0.800        100.568         62.620         96.291        133.334         97.860        104.709
          0.810         98.352         61.183         94.155        130.220         95.617        102.428
          0.820         96.214         59.795         92.093        127.220         93.453        100.226
          0.830         94.150         58.454         90.103        124.326         91.365         98.099
          0.840         92.157         57.159         88.180        121.536         89.348         96.044
          0.850         90.230         55.907         86.323        118.843         87.399         94.056
          0.860         88.368         54.697         84.527        116.243         85.517         92.134
          0.870         86.567         53.526         82.791        113.732         83.696         90.275
          0.880         84.824         52.394         81.111        111.305         81.936         88.475
          0.890         83.138         51.297         79.486        108.960         80.232         86.733
          0.900         81.506         50.235         77.912        106.692         78.584         85.045
          0.910         79.925         49.207         76.389        104.499         76.988         83.410
          0.920         78.393         48.210         74.912        102.376         75.442         81.825
          0.930         76.909         47.244         73.482        100.321         73.944         80.288
          0.940         75.470         46.308         72.095         98.331         72.492         78.797
          0.950         74.075         45.399         70.750         96.403         71.085         77.351
          0.960         72.721         44.518         69.446         94.535         69.720         75.948
          0.970         71.407         43.663         68.180         92.724         68.396         74.585
          0.980         70.132         42.832         66.951         90.968         67.111         73.262
          0.990         68.894         42.026         65.759         89.265         65.864         71.976
          1.000         67.692         41.243         64.600         87.612         64.653         70.727
          1.010         66.523         40.482         63.474         86.008         63.476         69.513
          1.020         65.388         39.742         62.381         84.451         62.333         68.333
          1.030         64.284         39.023         61.318         82.939         61.223         67.185
          1.040         63.211         38.324         60.284         81.469         60.143         66.068
          1.050         62.167         37.644         59.279         80.041         59.093         64.982
          1.060         61.152         36.982         58.301         78.654         58.072         63.924
          1.070         60.164         36.339         57.349         77.304         57.079         62.895
          1.080         59.202         35.712         56.423         75.992         56.112         61.892
          1.090         58.265         35.102         55.521         74.716         55.171         60.915
          1.100         57.353         34.507         54.643         73.474         54.255         59.964
          1.110         56.465         33.929         53.787         72.265         53.363         59.037
          1.120         55.599         33.365         52.954         71.088         52.494         58.133
          1.130         54.756         32.815         52.142         69.942         51.648         57.252
          1.140         53.934         32.279         51.350         68.826         50.823         56.393
          1.150         53.132         31.757         50.578         67.738         50.019         55.554
          1.160         52.350         31.248         49.826         66.679         49.235         54.737
          1.170         51.587         30.751         49.092         65.646         48.470         53.939
          1.180         50.843         30.267         48.376         64.639         47.725         53.160
          1.190         50.117         29.794         47.677         63.657         46.997         52.400
          1.200         49.409         29.332         46.995         62.700         46.287         51.657
          1.210         48.717         28.882         46.329         61.766         45.595         50.932
          1.220         48.041         28.442         45.680         60.854         44.919         50.224
          1.230         47.382         28.013         45.045         59.965         44.258         49.532
          1.240         46.737         27.593         44.425         59.096         43.614         48.856
          1.250         46.108         27.183         43.819         58.249         42.984         48.195
          1.260         45.493         26.783         43.227         57.421         42.369         47.549
          1.270         44.891         26.392         42.649         56.612         41.768         46.917
          1.280         44.303         26.009         42.084         55.823         41.181         46.299
          1.290         43.729         25.636         41.531         55.051         40.606         45.695
          1.300         43.167         25.270         40.991         54.297         40.045         45.104
          1.310         42.617         24.913         40.462         53.559         39.496         44.525
          1.320         42.079         24.563         39.945         52.839         38.960         43.959
          1.330         41.553         24.221         39.439         52.134         38.435         43.405
          1.340         41.038         23.886         38.944         51.445         37.921         42.863
          1.350         40.535         23.559         38.460         50.771         37.419         42.332
          1.360         40.041         23.239         37.986         50.111         36.927         41.812
          1.370         39.558         22.925         37.522         49.466         36.446         41.302
          1.380         39.086         22.618         37.067         48.835         35.975         40.803
          1.390         38.622         22.317         36.622         48.217         35.514         40.314
          1.400         38.169         22.023         36.186         47.612         35.062         39.836
          1.410         37.725         21.735         35.759         47.019         34.620         39.366
          1.420         37.289         21.452         35.341         46.439         34.187         38.906
          1.430         36.862         21.175         34.931         45.871         33.763         38.455
          1.440         36.444         20.904         34.529         45.315         33.347         38.013
          1.450         36.034         20.639         34.136         44.770         32.939         37.579
          1.460         35.633         20.378         33.750         44.235         32.540         37.154
          1.470         35.239         20.123         33.371         43.712         32.149         36.737
          1.480         34.852         19.873         33.000         43.199         31.765         36.327
          1.490         34.473         19.627         32.636         42.696         31.389         35.926
          1.500         34.101         19.387         32.279         42.203         31.020         35.532
          1.510         33.737         19.151         31.929         41.719         30.658         35.145
          1.520         33.379         18.919         31.586         41.245         30.303         34.766
          1.530         33.028         18.692         31.249         40.780         29.955         34.393
          1.540         32.683         18.469         30.918         40.324         29.614         34.027
          1.550         32.345         18.251         30.593         39.877         29.279         33.668
          1.560         32.013         18.036         30.275         39.438         28.950         33.316
          1.570         31.687         17.826         29.962         39.007         28.627         32.969
          1.580         31.367         17.619         29.655         38.584         28.310         32.629
          1.590         31.053         17.416         29.353         38.169         27.999         32.295
          1.600         30.744         17.217         29.057         37.761         27.694         31.966
          1.610         30.441         17.021         28.766         37.361         27.394         31.644
          1.620         30.143         16.829         28.480         36.969         27.100         31.327
          1.630         29.850         16.641         28.200         36.583         26.811         31.015
          1.640         29.562         16.455         27.924         36.204         26.527         30.709
          1.650         29.280         16.273         27.653         35.832         26.248         30.407
          1.660         29.002         16.094         27.387         35.466         25.974         30.111
          1.670         28.729         15.919         27.125         35.107         25.704         29.820
          1.680         28.461         15.746         26.868         34.754         25.440         29.534
          1.690         28.197         15.577         26.615         34.407         25.179         29.252
          1.700         27.937         15.410         26.366         34.067         24.924         28.976
          1.710         27.682         15.246         26.121         33.732         24.673         28.703
          1.720         27.431         15.085         25.881         33.402         24.425         28.435
          1.730         27.185         14.926         25.645         33.079         24.183         28.171
          1.740         26.942         14.771         25.412         32.760         23.944         27.912
          1.750         26.703         14.617         25.183         32.447         23.709         27.657
          1.760         26.468         14.467         24.958         32.139         23.478         27.406
          1.770         26.237         14.319         24.737         31.837         23.251         27.158
          1.780         26.009         14.173         24.519         31.539         23.027         26.915
          1.790         25.786         14.030         24.305         31.246         22.807         26.675
          1.800         25.565         13.889         24.094         30.958         22.591         26.439
          1.810         25.348         13.750         23.886         30.674         22.378         26.207
          1.820         25.135         13.614         23.682         30.395         22.169         25.978
          1.830         24.925         13.479         23.480         30.121         21.963         25.753
          1.840         24.718         13.347         23.282         29.850         21.760         25.531
          1.850         24.514         13.217         23.087         29.584         21.560         25.312
          1.860         24.313         13.089         22.895         29.322         21.363         25.097
          1.870         24.115         12.963         22.706         29.065         21.170         24.885
          1.880         23.921         12.839         22.520         28.811         20.979         24.676
          1.890         23.729         12.717         22.336         28.561         20.792         24.470
          1.900         23.540         12.597         22.156         28.315         20.607         24.267
          1.910         23.354         12.478         21.978         28.073         20.425         24.067
          1.920         23.171         12.361         21.802         27.834         20.246         23.870
          1.930         22.990         12.247         21.630         27.599         20.070         23.676
          1.940         22.812         12.134         21.459         27.367         19.896         23.484
          1.950         22.636         12.022         21.292         27.139         19.725         23.295
          1.960         22.463         11.912         21.126         26.914         19.556         23.109
          1.970         22.293         11.804         20.963         26.693         19.390         22.926
          1.980         22.125         11.698         20.803         26.475         19.226         22.745
          1.990         21.959         11.593         20.644         26.260         19.064         22.566
          2.000         21.796         11.489         20.488         26.048         18.905         22.390
          2.010         21.635         11.387         20.335         25.839         18.749         22.217
          2.020         21.476         11.287         20.183         25.633         18.594         22.046
          2.030         21.319         11.188         20.033         25.430         18.442         21.877
          2.040         21.165         11.090         19.886         25.230         18.292         21.710
          2.050         21.012         10.994         19.740         25.032         18.143         21.546
          2.060         20.862         10.899         19.597         24.838         17.998         21.384
